%% wavelength, n, k
    0.2500000000  1.63700000e+00  3.58890000e+00  
    0.2600000000  1.73700000e+00  3.99320000e+00  
    0.2700000000  2.03000000e+00  4.59580000e+00  
    0.2800000000  2.84000000e+00  5.19610000e+00  
    0.2900000000  4.18500000e+00  5.31240000e+00  
    0.3000000000  5.04900000e+00  4.29000000e+00  
    0.3100000000  5.09100000e+00  3.62390000e+00  
    0.3200000000  5.08500000e+00  3.28240000e+00  
    0.3300000000  5.13500000e+00  3.09350000e+00  
    0.3400000000  5.24500000e+00  2.95730000e+00  
    0.3500000000  5.42300000e+00  2.90780000e+00  
    0.3600000000  5.91400000e+00  2.91350000e+00  
    0.3700000000  6.82000000e+00  2.14030000e+00  
    0.3800000000  6.58700000e+00  9.83990000e-01  
    0.3900000000  6.02500000e+00  5.03080000e-01  
    0.4000000000  5.62300000e+00  3.26270000e-01  
    0.4100000000  5.34100000e+00  2.41270000e-01  
    0.4200000000  5.11000000e+00  1.76940000e-01  
    0.4300000000  4.93200000e+00  1.37660000e-01  
    0.4400000000  4.79000000e+00  1.12010000e-01  
    0.4500000000  4.67300000e+00  9.53620000e-02  
    0.4600000000  4.57200000e+00  7.91050000e-02  
    0.4700000000  4.48500000e+00  7.02400000e-02  
    0.4800000000  4.41200000e+00  5.98170000e-02  
    0.4900000000  4.34900000e+00  5.38100000e-02  
    0.5000000000  4.28900000e+00  4.85420000e-02  
    0.5100000000  4.23500000e+00  4.38310000e-02  
    0.5200000000  4.18700000e+00  3.95310000e-02  
    0.5300000000  4.14500000e+00  3.48040000e-02  
    0.5400000000  4.10300000e+00  2.98960000e-02  
    0.5500000000  4.07300000e+00  2.80380000e-02  
    0.5600000000  4.03800000e+00  2.65510000e-02  
    0.5700000000  4.00600000e+00  2.37460000e-02  
    0.5800000000  3.97700000e+00  2.18960000e-02  
    0.5900000000  3.95400000e+00  2.00760000e-02  
    0.6000000000  3.93100000e+00  1.85210000e-02  
    0.6100000000  3.90800000e+00  1.72570000e-02  
    0.6200000000  3.88800000e+00  1.68090000e-02  
    0.6300000000  3.86900000e+00  1.62680000e-02  
    0.6400000000  3.85100000e+00  1.46930000e-02  
    0.6500000000  3.83500000e+00  1.44470000e-02  
    0.6600000000  3.81700000e+00  1.36080000e-02  
    0.6700000000  3.80500000e+00  1.28070000e-02  
    0.6800000000  3.79100000e+00  1.20450000e-02  
    0.6900000000  3.77600000e+00  1.13170000e-02  
    0.7000000000  3.76500000e+00  1.06230000e-02  
    0.7100000000  3.75300000e+00  9.96100000e-03  
    0.7200000000  3.74100000e+00  9.33350000e-03  
    0.7300000000  3.73000000e+00  8.73120000e-03  
    0.7400000000  3.71900000e+00  8.16180000e-03  
    0.7500000000  3.71200000e+00  7.61560000e-03  
    0.7600000000  3.70100000e+00  7.09420000e-03  
    0.7700000000  3.69300000e+00  6.60540000e-03  
    0.7800000000  3.68400000e+00  6.13380000e-03  
    0.7900000000  3.67700000e+00  5.68880000e-03  
    0.8000000000  3.66900000e+00  5.26550000e-03  
    0.8100000000  3.66200000e+00  4.86400000e-03  
    0.8200000000  3.65500000e+00  4.48360000e-03  
    0.8300000000  3.64600000e+00  4.12350000e-03  
    0.8400000000  3.64100000e+00  3.78280000e-03  
    0.8500000000  3.63600000e+00  3.46050000e-03  
    0.8600000000  3.62800000e+00  3.15630000e-03  
    0.8700000000  3.62200000e+00  2.86970000e-03  
    0.8800000000  3.61700000e+00  2.60010000e-03  
    0.8900000000  3.61300000e+00  2.34640000e-03  
    0.9000000000  3.61000000e+00  2.10920000e-03  
    0.9100000000  3.60400000e+00  1.88640000e-03  
    0.9200000000  3.59800000e+00  1.67870000e-03  
    0.9300000000  3.59700000e+00  1.47570000e-03  
    0.9400000000  3.59000000e+00  1.30610000e-03  
    0.9500000000  3.58400000e+00  1.13930000e-03  
    0.9600000000  3.58400000e+00  9.82430000e-04  
    0.9700000000  3.57800000e+00  8.40600000e-04  
    0.9800000000  3.58200000e+00  7.13340000e-04  
    0.9900000000  3.57900000e+00  5.96380000e-04  
    1.0000000000  3.57500000e+00  4.90200000e-04  
    1.0100000000  3.57200000e+00  3.96160000e-04  
    1.0200000000  3.56800000e+00  3.14370000e-04  
    1.0300000000  3.56500000e+00  2.40480000e-04  
    1.0400000000  3.56200000e+00  1.79590000e-04  
    1.0500000000  3.55900000e+00  1.30430000e-04  
    1.0600000000  3.55600000e+00  9.24500000e-05  
    1.0700000000  3.55300000e+00  6.78200000e-05  
    1.0800000000  3.54900000e+00  5.21680000e-05  
    1.0900000000  3.54700000e+00  3.97700000e-05  
    1.1000000000  3.54500000e+00  3.02170000e-05  
    1.1100000000  3.54200000e+00  2.29130000e-05  
    1.1200000000  3.54000000e+00  1.70680000e-05  
    1.1300000000  3.53700000e+00  1.23820000e-05  
    1.1400000000  3.53400000e+00  8.62100000e-06  
    1.1500000000  3.53300000e+00  5.68760000e-06  
    1.1600000000  3.53000000e+00  3.42750000e-06  
    1.1700000000  3.52700000e+00  1.76530000e-06  
    1.1800000000  3.52600000e+00  5.55610000e-07  
    1.1900000000  3.52400000e+00  2.31530000e-07  
    1.2000000000  3.52200000e+00  1.39040000e-07  
    1.2100000000  3.52000000e+00  8.08630000e-08  
    1.2200000000  3.51800000e+00  4.79400000e-08  
    1.2300000000  3.51700000e+00  2.71320000e-08  
    1.2400000000  3.51500000e+00  1.43180000e-08  
    1.2500000000  3.51300000e+00  5.87980000e-09  
    1.2600000000  3.51200000e+00  2.33520000e-09  
    1.2700000000  3.50900000e+00  1.27140000e-09  
    1.2800000000  3.50900000e+00  7.52840000e-10  
    1.2900000000  3.50600000e+00  4.47990000e-10  
    1.3000000000  3.50500000e+00  2.72280000e-10  
    1.3100000000  3.50300000e+00  1.58560000e-10  
    1.3200000000  3.50200000e+00  8.71960000e-11  
    1.3300000000  3.50100000e+00  4.20390000e-11  
    1.3400000000  3.50000000e+00  1.81280000e-11  
    1.3500000000  3.49900000e+00  1.04280000e-11  
    1.3600000000  3.49700000e+00  6.29110000e-12  
    1.3700000000  3.49600000e+00  3.90300000e-12  
    1.3800000000  3.49600000e+00  2.63670000e-12  
    1.3900000000  3.49600000e+00  1.73770000e-12  
    1.4000000000  3.49300000e+00  1.04280000e-12  
    1.4100000000  3.49200000e+00  6.04220000e-13  
    1.4200000000  3.49200000e+00  4.28950000e-13  
    1.4300000000  3.49000000e+00  2.03810000e-13  
    1.4400000000  3.48800000e+00  1.37850000e-13  
    1.4500000000  3.48700000e+00  1.09010000e-13  
