%% wavelength, n, k
    1.2000000000  3.51670000e+00  0.00000000e+00  
    1.2200000000  3.51330000e+00  0.00000000e+00  
    1.2400000000  3.51020000e+00  0.00000000e+00  
    1.2600000000  3.50720000e+00  0.00000000e+00  
    1.2800000000  3.50430000e+00  0.00000000e+00  
    1.3000000000  3.50160000e+00  0.00000000e+00  
    1.3200000000  3.49900000e+00  0.00000000e+00  
    1.3400000000  3.49650000e+00  0.00000000e+00  
    1.3600000000  3.49410000e+00  0.00000000e+00  
    1.3800000000  3.49180000e+00  0.00000000e+00  
    1.4000000000  3.48960000e+00  0.00000000e+00  
    1.4500000000  3.48450000e+00  0.00000000e+00  
    1.5000000000  3.47990000e+00  0.00000000e+00  
    1.5500000000  3.47570000e+00  0.00000000e+00  
    1.6000000000  3.47190000e+00  0.00000000e+00  
    1.6500000000  3.46840000e+00  0.00000000e+00  
    1.7000000000  3.46530000e+00  0.00000000e+00  
    1.8000000000  3.45970000e+00  0.00000000e+00  
    1.9000000000  3.45500000e+00  0.00000000e+00  
    2.0000000000  3.45100000e+00  0.00000000e+00  
    2.2500000000  3.44310000e+00  0.00000000e+00  
    2.5000000000  3.43750000e+00  0.00000000e+00  
    2.7500000000  3.43340000e+00  0.00000000e+00  
    3.0000000000  3.43020000e+00  0.00000000e+00  
    4.0000000000  3.42290000e+00  0.00000000e+00  
    5.0000000000  3.41950000e+00  0.00000000e+00  
    6.0000000000  3.41770000e+00  0.00000000e+00  
    7.0000000000  3.41650000e+00  0.00000000e+00  
    8.0000000000  3.41580000e+00  0.00000000e+00  
    9.0000000000  3.41530000e+00  0.00000000e+00  
   10.0000000000  3.41500000e+00  0.00000000e+00  
   11.0000000000  3.41470000e+00  0.00000000e+00  
   12.0000000000  3.41450000e+00  0.00000000e+00  
   13.0000000000  3.41440000e+00  0.00000000e+00  
   14.0000000000  3.41420000e+00  0.00000000e+00  
